#X,Acoustic Pressure across Frequency(2)_At Node 923,Acoustic Pressure across Frequency(2)_At Node 923
#Frequency(Hz),Pressure(N/mm^2(MPa))_Magnitude,Angle(degrees)_Phase
20.000000,0.000144,-250.145973
30.000000,0.000101,-257.102469
40.000000,0.000077,-261.072562
50.000000,0.000063,-263.817581
60.000000,0.000054,-265.974511
70.000000,0.000047,-267.826761
80.000000,0.000042,-269.518965
90.000000,0.000038,-271.132252
100.000000,0.000035,-272.715280
110.000000,0.000033,-274.298697
120.000000,0.000031,-275.902544
130.000000,0.000029,-277.540350
140.000000,0.000028,-279.221538
150.000000,0.000027,-280.952894
160.000000,0.000026,-282.739517
170.000000,0.000025,-284.585438
180.000000,0.000025,-286.494027
190.000000,0.000024,-288.468273
200.000000,0.000024,-290.510987
210.000000,0.000024,-292.624913
220.000000,0.000023,-294.812821
230.000000,0.000023,-297.077562
240.000000,0.000023,-299.422082
250.000000,0.000023,-301.849446
260.000000,0.000023,-304.362821
270.000000,0.000023,-306.965430
280.000000,0.000023,-309.660534
290.000000,0.000024,-312.451346
300.000000,0.000024,-315.340973
310.000000,0.000024,-318.332294
320.000000,0.000024,-321.427845
330.000000,0.000025,-324.629704
340.000000,0.000025,-327.939297
350.000000,0.000025,-331.357269
360.000000,0.000026,-334.883261
370.000000,0.000026,-338.515765
380.000000,0.000026,-342.251947
390.000000,0.000027,-346.087488
400.000000,0.000027,-350.016508
410.000000,0.000027,-354.031503
420.000000,0.000028,-358.123380
430.000000,0.000028,-2.281574
440.000000,0.000029,-6.494238
450.000000,0.000029,-10.748534
460.000000,0.000029,-15.030987
470.000000,0.000029,-19.327888
480.000000,0.000030,-23.625719
490.000000,0.000030,-27.911567
500.000000,0.000030,-32.173510
510.000000,0.000030,-36.400923
520.000000,0.000030,-40.584712
530.000000,0.000031,-44.717483
540.000000,0.000031,-48.793596
550.000000,0.000031,-52.809174
560.000000,0.000031,-56.762027
570.000000,0.000031,-60.651565
580.000000,0.000032,-64.478665
590.000000,0.000032,-68.245547
600.000000,0.000032,-71.955643
610.000000,0.000033,-75.613503
620.000000,0.000033,-79.224715
630.000000,0.000034,-82.795894
640.000000,0.000034,-86.334696
650.000000,0.000035,-89.849926
660.000000,0.000036,-93.351713
670.000000,0.000037,-96.851815
680.000000,0.000039,-100.364072
690.000000,0.000040,-103.905083
700.000000,0.000042,-107.495219
710.000000,0.000044,-111.160124
720.000000,0.000047,-114.933017
730.000000,0.000050,-118.858259
740.000000,0.000054,-122.997099
750.000000,0.000059,-127.437221
760.000000,0.000066,-132.309200
770.000000,0.000074,-137.816191
780.000000,0.000085,-144.289572
790.000000,0.000100,-152.296494
800.000000,0.000120,-162.842448
810.000000,0.000147,-177.662696
820.000000,0.000175,-198.986800
830.000000,0.000184,-226.276885
840.000000,0.000161,-252.411318
850.000000,0.000128,-271.800816
860.000000,0.000101,-285.223904
870.000000,0.000082,-294.909021
880.000000,0.000067,-302.370688
890.000000,0.000057,-308.469018
900.000000,0.000049,-313.691784
910.000000,0.000043,-318.326937
920.000000,0.000038,-322.552617
930.000000,0.000034,-326.484002
940.000000,0.000030,-330.198532
950.000000,0.000028,-333.750088
960.000000,0.000025,-337.177265
970.000000,0.000023,-340.508446
980.000000,0.000022,-343.764968
990.000000,0.000020,-346.963181
1000.000000,0.000019,-350.115824
1010.000000,0.000017,-353.232970
1020.000000,0.000016,-356.322676
1030.000000,0.000015,-359.391452
1040.000000,0.000015,-2.444601
1050.000000,0.000014,-5.486468
1060.000000,0.000013,-8.520625
1070.000000,0.000012,-11.550018
1080.000000,0.000012,-14.577070
1090.000000,0.000011,-17.603776
1100.000000,0.000011,-20.631769
1110.000000,0.000010,-23.662363
1120.000000,0.000010,-26.696628
1130.000000,0.000009,-29.735407
1140.000000,0.000009,-32.779344
1150.000000,0.000009,-35.828940
1160.000000,0.000008,-38.884556
1170.000000,0.000008,-41.946451
1180.000000,0.000008,-45.014789
1190.000000,0.000008,-48.089682
1200.000000,0.000007,-51.171192
1210.000000,0.000007,-54.259346
1220.000000,0.000007,-57.354178
1230.000000,0.000007,-60.455708
1240.000000,0.000006,-63.563994
1250.000000,0.000006,-66.679133
1260.000000,0.000006,-69.801261
1270.000000,0.000006,-72.930581
1280.000000,0.000006,-76.067384
1290.000000,0.000005,-79.212031
1300.000000,0.000005,-82.364993
1310.000000,0.000005,-85.526845
1320.000000,0.000005,-88.698276
1330.000000,0.000005,-91.880102
1340.000000,0.000005,-95.073269
1350.000000,0.000004,-98.278862
1360.000000,0.000004,-101.498108
1370.000000,0.000004,-104.732389
1380.000000,0.000004,-107.983243
1390.000000,0.000004,-111.252361
1400.000000,0.000004,-114.541615
1410.000000,0.000004,-117.853032
1420.000000,0.000004,-121.188831
1430.000000,0.000004,-124.551404
1440.000000,0.000004,-127.943333
1450.000000,0.000003,-131.367384
1460.000000,0.000003,-134.826541
1470.000000,0.000003,-138.323972
1480.000000,0.000003,-141.863067
1490.000000,0.000003,-145.447415
1500.000000,0.000003,-149.080832
1510.000000,0.000003,-152.767360
1520.000000,0.000003,-156.511254
1530.000000,0.000003,-160.316995
1540.000000,0.000003,-164.189290
1550.000000,0.000003,-168.133052
1560.000000,0.000003,-172.153394
1570.000000,0.000003,-176.255613
1580.000000,0.000003,-180.445154
1590.000000,0.000003,-184.727574
1600.000000,0.000002,-189.108483
1610.000000,0.000002,-193.593482
1620.000000,0.000002,-198.188053
1630.000000,0.000002,-202.897458
1640.000000,0.000002,-207.726586
1650.000000,0.000002,-212.679793
1660.000000,0.000002,-217.760677
1670.000000,0.000002,-222.971867
1680.000000,0.000002,-228.314775
1690.000000,0.000002,-233.789313
1700.000000,0.000002,-239.393645
1710.000000,0.000002,-245.123947
1720.000000,0.000002,-250.974214
1730.000000,0.000002,-256.936145
1740.000000,0.000002,-262.999133
1750.000000,0.000002,-269.150372
1760.000000,0.000002,-275.375108
1770.000000,0.000002,-281.657026
1780.000000,0.000002,-287.978754
1790.000000,0.000002,-294.322436
1800.000000,0.000002,-300.670358
1810.000000,0.000002,-307.005560
1820.000000,0.000003,-313.312337
1830.000000,0.000003,-319.576706
1840.000000,0.000003,-325.786681
1850.000000,0.000003,-331.932436
1860.000000,0.000003,-338.006347
1870.000000,0.000003,-344.002905
1880.000000,0.000003,-349.918558
1890.000000,0.000003,-355.751494
1900.000000,0.000003,-1.501397
1910.000000,0.000004,-7.169185
1920.000000,0.000004,-12.756775
1930.000000,0.000004,-18.266849
1940.000000,0.000004,-23.702658
1950.000000,0.000004,-29.067857
1960.000000,0.000005,-34.366355
1970.000000,0.000005,-39.602208
1980.000000,0.000005,-44.779535
1990.000000,0.000005,-49.902448
2000.000000,0.000006,-54.975000


