#X,Acoustic Pressure across Frequency(4)_At Node 589,Acoustic Pressure across Frequency(4)_At Node 589
#Frequency(Hz),Angle(degrees)_Phase,Pressure(N/mm^2(MPa))_Magnitude
20.000000,-250.693035,1.641787E-04
30.000000,-260.232231,1.148023E-04
40.000000,-266.309510,8.773652E-05
50.000000,-270.864808,7.090419E-05
60.000000,-274.623397,5.950002E-05
70.000000,-277.913198,5.129639E-05
80.000000,-280.903497,4.513134E-05
90.000000,-283.690500,4.034256E-05
100.000000,-286.332978,3.652591E-05
110.000000,-288.868890,3.342125E-05
120.000000,-291.323890,3.085374E-05
130.000000,-293.715961,2.870166E-05
140.000000,-296.058130,2.687776E-05
150.000000,-298.360098,2.531790E-05
160.000000,-300.629275,2.397396E-05
170.000000,-302.871464,2.280915E-05
180.000000,-305.091307,2.179492E-05
190.000000,-307.292601,2.090883E-05
200.000000,-309.478483,2.013301E-05
210.000000,-311.651629,1.945313E-05
220.000000,-313.814318,1.885759E-05
230.000000,-315.968535,1.833697E-05
240.000000,-318.116012,1.788361E-05
250.000000,-320.258289,1.749123E-05
260.000000,-322.396720,1.715477E-05
270.000000,-324.532515,1.687015E-05
280.000000,-326.666736,1.663416E-05
290.000000,-328.800329,1.644437E-05
300.000000,-330.934124,1.629902E-05
310.000000,-333.068836,1.619704E-05
320.000000,-335.205079,1.613798E-05
330.000000,-337.343363,1.612205E-05
340.000000,-339.484098,1.615017E-05
350.000000,-341.627599,1.622398E-05
360.000000,-343.774087,1.634598E-05
370.000000,-345.923695,1.651969E-05
380.000000,-348.076464,1.674981E-05
390.000000,-350.232353,1.704255E-05
400.000000,-352.391245,1.740600E-05
410.000000,-354.552942,1.785071E-05
420.000000,-356.717185,1.839051E-05
430.000000,-358.883651,1.904367E-05
440.000000,-1.051968,1.983466E-05
450.000000,-3.221724,2.079684E-05
460.000000,-5.392479,2.197669E-05
470.000000,-7.563786,2.344077E-05
480.000000,-9.735215,2.528763E-05
490.000000,-11.906398,2.766950E-05
500.000000,-14.077086,3.083415E-05
510.000000,-16.247300,3.521367E-05
520.000000,-18.417640,4.163442E-05
530.000000,-20.590112,5.189927E-05
540.000000,-22.771117,7.083390E-05
550.000000,-24.987125,1.171925E-04
560.000000,-27.544500,4.041365E-04
570.000000,-208.751140,2.435321E-04
580.000000,-211.107084,8.876264E-05
590.000000,-213.286451,5.242312E-05
600.000000,-215.430487,3.620279E-05
610.000000,-217.557830,2.701532E-05
620.000000,-219.673758,2.109762E-05
630.000000,-221.780337,1.696174E-05
640.000000,-223.878595,1.390072E-05
650.000000,-225.969136,1.153501E-05
660.000000,-228.052417,9.641982E-06
670.000000,-230.128840,8.081666E-06
680.000000,-232.198810,6.760726E-06
690.000000,-234.262747,5.613393E-06
700.000000,-236.321113,4.590503E-06
710.000000,-238.374424,3.652587E-06
720.000000,-240.423259,2.764879E-06
730.000000,-242.468261,1.892849E-06
740.000000,-244.510199,9.969080E-07
750.000000,-246.549988,2.413097E-08
760.000000,-68.588851,1.107770E-06
770.000000,-70.628612,2.547389E-06
780.000000,-72.672602,4.611921E-06
790.000000,-74.728825,8.151190E-06
800.000000,-76.827499,1.654620E-05
810.000000,-79.352400,7.347615E-05
820.000000,-260.381693,4.016977E-05
830.000000,-262.612404,1.704438E-05
840.000000,-264.694004,1.113791E-05
850.000000,-266.750540,8.364972E-06
860.000000,-268.800070,6.716808E-06
870.000000,-270.848178,5.602201E-06
880.000000,-272.897294,4.784144E-06
890.000000,-274.948722,4.148855E-06
900.000000,-277.003257,3.634728E-06
910.000000,-279.061418,3.205388E-06
920.000000,-281.123556,2.837890E-06
930.000000,-283.189891,2.516993E-06
940.000000,-285.260551,2.232143E-06
950.000000,-287.335581,1.975793E-06
960.000000,-289.414975,1.742491E-06
970.000000,-291.498868,1.529592E-06
980.000000,-293.585421,1.323581E-06
990.000000,-295.677199,1.138007E-06
1000.000000,-297.772253,9.615348E-07
1010.000000,-299.870503,7.936065E-07
1020.000000,-301.971611,6.329184E-07
1030.000000,-304.075190,4.782880E-07
1040.000000,-306.180810,3.286834E-07
1050.000000,-308.288023,1.832005E-07
1060.000000,-310.396364,4.103984E-08
1070.000000,-132.505363,9.851507E-08
1080.000000,-134.614540,2.361146E-07
1090.000000,-136.723420,3.723578E-07
1100.000000,-138.831546,5.078038E-07
1110.000000,-140.938477,6.429827E-07
1120.000000,-143.043799,7.784039E-07
1130.000000,-145.147117,9.145635E-07
1140.000000,-147.248075,1.051952E-06
1150.000000,-149.346375,1.191061E-06
1160.000000,-151.441737,1.332386E-06
1170.000000,-153.533951,1.476438E-06
1180.000000,-155.622844,1.623745E-06
1190.000000,-157.708298,1.774860E-06
1200.000000,-159.790251,1.930368E-06
1210.000000,-161.868700,2.090895E-06
1220.000000,-163.943693,2.257124E-06
1230.000000,-166.015336,2.429815E-06
1240.000000,-168.083797,2.609880E-06
1250.000000,-170.149310,2.798654E-06
1260.000000,-172.212314,3.000539E-06
1270.000000,-174.270998,3.174389E-06
1280.000000,-176.330123,3.408213E-06
1290.000000,-178.386853,3.639280E-06
1300.000000,-180.442329,3.882396E-06
1310.000000,-182.497098,4.139991E-06
1320.000000,-184.551712,4.413966E-06
1330.000000,-186.606761,4.706283E-06
1340.000000,-188.662875,5.019100E-06
1350.000000,-190.720730,5.354845E-06
1360.000000,-192.781053,5.716280E-06
1370.000000,-194.844623,6.106566E-06
1380.000000,-196.912286,6.529344E-06
1390.000000,-198.984957,6.988836E-06
1400.000000,-201.063654,7.489966E-06
1410.000000,-203.149497,8.038517E-06
1420.000000,-205.243745,8.641326E-06
1430.000000,-207.347846,9.306538E-06
1440.000000,-209.463462,1.004393E-05
1450.000000,-211.592552,1.086537E-05
1460.000000,-213.737469,1.178534E-05
1470.000000,-215.901057,1.282177E-05
1480.000000,-218.086838,1.399707E-05
1490.000000,-220.299236,1.533967E-05
1500.000000,-222.543922,1.688608E-05
1510.000000,-224.828278,1.868404E-05
1520.000000,-227.162145,2.079715E-05
1530.000000,-229.558903,2.331190E-05
1540.000000,-232.037248,2.634899E-05
1550.000000,-234.624075,3.008176E-05
1560.000000,-237.359450,3.476805E-05
1570.000000,-240.305719,4.080792E-05
1580.000000,-243.565152,4.885507E-05
1590.000000,-247.317404,6.004982E-05
1600.000000,-251.907625,7.655475E-05
1610.000000,-258.085054,1.029399E-04
1620.000000,-267.777608,1.502169E-04
1630.000000,-287.125980,2.462089E-04
1640.000000,-332.688913,3.755758E-04
1650.000000,-21.625426,2.853833E-04
1660.000000,-42.955700,1.890087E-04
1670.000000,-53.287701,1.423180E-04
1680.000000,-59.711672,1.199172E-04
1690.000000,-64.419827,1.142545E-04
1700.000000,-68.150102,1.590740E-04
1710.000000,-251.331183,6.777252E-05
1720.000000,-74.299101,1.943620E-05
1730.000000,-76.997835,3.001330E-05
1740.000000,-79.530302,3.249272E-05
1750.000000,-81.942733,3.282744E-05
1760.000000,-84.264770,3.244516E-05
1770.000000,-86.516825,3.182210E-05
1780.000000,-88.713556,3.114435E-05
1790.000000,-90.865843,3.049035E-05
1800.000000,-92.981988,2.989354E-05
1810.000000,-95.068492,2.936724E-05
1820.000000,-97.130568,2.891543E-05
1830.000000,-99.172490,2.853776E-05
1840.000000,-101.197840,2.823200E-05
1850.000000,-103.209681,2.799529E-05
1860.000000,-105.210700,2.782471E-05
1870.000000,-107.203314,2.771768E-05
1880.000000,-109.189846,2.767209E-05
1890.000000,-111.173084,2.768651E-05
1900.000000,-113.168789,2.776174E-05
1910.000000,-115.117659,2.790144E-05
1920.000000,-117.101421,2.810204E-05
1930.000000,-119.087479,2.839770E-05
1940.000000,-121.113579,2.909802E-05
1950.000000,-123.023191,2.940638E-05
1960.000000,-125.019270,2.911708E-05
1970.000000,-127.022652,2.964388E-05
1980.000000,-129.031316,3.019276E-05
1990.000000,-131.048269,3.079394E-05
2000.000000,-133.075185,3.145743E-05


