#X,Acoustic Pressure across Frequency(4)_At Node 479,Acoustic Pressure across Frequency(4)_At Node 479
#Frequency(Hz),Angle(degrees)_Phase,Pressure(N/mm^2(MPa))_Magnitude
20.000000,-248.643352,1.614807E-04
30.000000,-256.867045,1.128525E-04
40.000000,-261.670111,8.630792E-05
50.000000,-264.976347,6.984699E-05
60.000000,-267.503074,5.872310E-05
70.000000,-269.574151,5.074164E-05
80.000000,-271.356344,4.475966E-05
90.000000,-272.944012,4.012646E-05
100.000000,-274.394450,3.644545E-05
110.000000,-275.744417,3.346161E-05
120.000000,-277.018569,3.100373E-05
130.000000,-278.234070,2.895272E-05
140.000000,-279.403248,2.722329E-05
150.000000,-280.535213,2.575279E-05
160.000000,-281.636855,2.449426E-05
170.000000,-282.713511,2.341182E-05
180.000000,-283.769389,2.247765E-05
190.000000,-284.807881,2.166988E-05
200.000000,-285.831756,2.097116E-05
210.000000,-286.843324,2.036752E-05
220.000000,-287.844531,1.984772E-05
230.000000,-288.837040,1.940259E-05
240.000000,-289.822300,1.902466E-05
250.000000,-290.801568,1.870782E-05
260.000000,-291.775972,1.844709E-05
270.000000,-292.746512,1.823841E-05
280.000000,-293.714092,1.807853E-05
290.000000,-294.679525,1.796486E-05
300.000000,-295.643565,1.789542E-05
310.000000,-296.606893,1.786874E-05
320.000000,-297.570139,1.788382E-05
330.000000,-298.533884,1.794013E-05
340.000000,-299.498661,1.803754E-05
350.000000,-300.464968,1.817631E-05
360.000000,-301.433269,1.835712E-05
370.000000,-302.403979,1.858106E-05
380.000000,-303.377500,1.884962E-05
390.000000,-304.354194,1.916473E-05
400.000000,-305.334400,1.952883E-05
410.000000,-306.318434,1.994485E-05
420.000000,-307.306584,2.041631E-05
430.000000,-308.299129,2.094738E-05
440.000000,-309.296337,2.154296E-05
450.000000,-310.298452,2.220881E-05
460.000000,-311.305731,2.295168E-05
470.000000,-312.318417,2.377947E-05
480.000000,-313.336771,2.470144E-05
490.000000,-314.361074,2.572846E-05
500.000000,-315.391618,2.687336E-05
510.000000,-316.428771,2.815132E-05
520.000000,-317.472920,2.958035E-05
530.000000,-318.524553,3.118201E-05
540.000000,-319.584260,3.298219E-05
550.000000,-320.652752,3.501223E-05
560.000000,-321.730924,3.731036E-05
570.000000,-322.819901,3.992359E-05
580.000000,-323.921098,4.291032E-05
590.000000,-325.036324,4.634383E-05
600.000000,-326.167912,5.031723E-05
610.000000,-327.318890,5.495037E-05
620.000000,-328.493243,6.039997E-05
630.000000,-329.696290,6.687448E-05
640.000000,-330.935262,7.465689E-05
650.000000,-332.220186,8.414039E-05
660.000000,-333.565334,9.588653E-05
670.000000,-334.991687,1.107242E-04
680.000000,-336.531314,1.299267E-04
690.000000,-338.235750,1.555496E-04
700.000000,-340.193313,1.911277E-04
710.000000,-342.568833,2.432666E-04
720.000000,-345.708644,3.258048E-04
730.000000,-350.479710,4.729582E-04
740.000000,-359.763193,7.937269E-04
750.000000,-28.954706,1.738671E-03
760.000000,-109.629079,1.868358E-03
770.000000,-139.298817,9.661285E-04
780.000000,-148.710126,6.538400E-04
790.000000,-153.576838,5.140212E-04
800.000000,-156.829232,4.407298E-04
810.000000,-159.353465,4.010231E-04
820.000000,-161.514626,3.824883E-04
830.000000,-163.505549,3.807825E-04
840.000000,-165.464310,3.965006E-04
850.000000,-167.543917,4.361289E-04
860.000000,-170.024336,5.194176E-04
870.000000,-173.742766,7.147800E-04
880.000000,-183.897763,1.451899E-03
890.000000,-316.104165,2.622170E-03
900.000000,-342.587039,5.941032E-04
910.000000,-347.617198,2.764694E-04
920.000000,-350.434141,1.495296E-04
930.000000,-352.616832,7.961701E-05
940.000000,-354.576500,3.323123E-05
950.000000,-176.367659,2.273306E-06
960.000000,-178.425855,3.318825E-05
970.000000,-180.555911,6.368264E-05
980.000000,-182.995574,9.769189E-05
990.000000,-185.996156,1.405759E-04
1000.000000,-190.070249,2.021673E-04
1010.000000,-196.502401,3.054898E-04
1020.000000,-209.406387,5.171221E-04
1030.000000,-246.660768,9.857002E-04
1040.000000,-310.718472,8.626264E-04
1050.000000,-336.435869,5.038141E-04
1060.000000,-346.401887,3.466800E-04
1070.000000,-351.817658,2.662287E-04
1080.000000,-355.433291,2.182906E-04
1090.000000,-358.171883,1.867907E-04
1100.000000,-0.423661,1.647222E-04
1110.000000,-2.381301,1.485835E-04
1120.000000,-4.151164,1.364428E-04
1130.000000,-5.797259,1.271541E-04
1140.000000,-7.361001,1.200007E-04
1150.000000,-8.871036,1.145181E-04
1160.000000,-10.348557,1.104002E-04
1170.000000,-11.810437,1.074464E-04
1180.000000,-13.271272,1.055324E-04
1190.000000,-14.744867,1.045940E-04
1200.000000,-16.245562,1.046198E-04
1210.000000,-17.789633,1.056517E-04
1220.000000,-19.397047,1.077934E-04
1230.000000,-21.094059,1.112285E-04
1240.000000,-22.917311,1.162558E-04
1250.000000,-24.920960,1.233532E-04
1260.000000,-27.189879,1.332991E-04
1270.000000,-29.866245,1.474141E-04
1280.000000,-33.208309,1.680825E-04
1290.000000,-37.736783,1.999880E-04
1300.000000,-44.660374,2.533486E-04
1310.000000,-57.368766,3.523024E-04
1320.000000,-86.369851,5.266708E-04
1330.000000,-138.440899,5.197703E-04
1340.000000,-170.700687,3.124745E-04
1350.000000,-184.551684,1.972885E-04
1360.000000,-191.903629,1.369324E-04
1370.000000,-196.621263,1.012039E-04
1380.000000,-200.055608,7.787658E-05
1390.000000,-202.777479,6.151933E-05
1400.000000,-205.065857,4.941804E-05
1410.000000,-207.072569,4.007977E-05
1420.000000,-208.887336,3.261837E-05
1430.000000,-210.566798,2.647445E-05
1440.000000,-212.148772,2.127601E-05
1450.000000,-213.659796,1.676395E-05
1460.000000,-215.119373,1.274965E-05
1470.000000,-216.542386,9.089374E-06
1480.000000,-217.939954,5.668033E-06
1490.000000,-219.313103,2.388006E-06
1500.000000,-40.818673,8.391184E-07
1510.000000,-42.149527,4.099488E-06
1520.000000,-43.562256,7.483760E-06
1530.000000,-45.015184,1.109480E-05
1540.000000,-46.522160,1.505783E-05
1550.000000,-48.105069,1.953518E-05
1560.000000,-49.795048,2.474992E-05
1570.000000,-51.637849,3.102606E-05
1580.000000,-53.704295,3.886231E-05
1590.000000,-56.111301,4.907756E-05
1600.000000,-59.068103,6.312548E-05
1610.000000,-62.991056,8.385477E-05
1620.000000,-68.839276,1.176200E-04
1630.000000,-79.339475,1.810326E-04
1640.000000,-104.492865,3.162281E-04
1650.000000,-162.653814,3.924534E-04
1660.000000,-201.642254,2.338328E-04
1670.000000,-216.792998,1.443455E-04
1680.000000,-225.151518,9.425634E-05
1690.000000,-231.866724,5.442531E-05
1700.000000,-239.895007,8.808998E-07
1710.000000,-87.421893,1.796739E-04
1720.000000,-197.944617,2.924598E-04
1730.000000,-220.550593,1.652813E-04
1740.000000,-227.253684,1.283743E-04
1750.000000,-231.062494,1.108925E-04
1760.000000,-233.836784,1.008173E-04
1770.000000,-236.123962,9.452528E-05
1780.000000,-238.149458,9.054851E-05
1790.000000,-240.027861,8.818805E-05
1800.000000,-241.827643,8.708502E-05
1810.000000,-243.596241,8.705925E-05
1820.000000,-245.371790,8.804227E-05
1830.000000,-247.190006,9.005108E-05
1840.000000,-249.089532,9.318497E-05
1850.000000,-251.117877,9.764182E-05
1860.000000,-253.340103,1.037602E-04
1870.000000,-255.854478,1.121089E-04
1880.000000,-258.825070,1.236804E-04
1890.000000,-262.561051,1.403577E-04
1900.000000,-267.752146,1.662393E-04
1910.000000,-276.413827,2.124463E-04
1920.000000,-298.423194,3.197855E-04
1930.000000,-18.942547,3.004494E-04
1940.000000,-250.047361,1.281677E-05
1950.000000,-270.207791,1.411650E-04
1960.000000,-292.573621,2.641242E-04
1970.000000,-328.429237,3.804318E-04
1980.000000,-7.806489,3.520519E-04
1990.000000,-31.633671,2.580702E-04
2000.000000,-44.432432,1.929371E-04


